//----------------------------------------
//Multipak Exporter  1.2.5
//Load file from XPS_PHI_QUANTERA_narrow.spe
//----------------------------------------
//----------------------------------------
//HEADER INFORMATION
Platform:PC
Technique:XPS
FileType:SPECTRUM
FileDesc:MIDATA001
SoftwareVersion:SS 3.6.1.16
InstrumentModel:PHI Quantera SXM
AcqFilename:C:\Datafiles\Butuzai\XPS_PHI_QUANTERA_narrow.spe
FileDate:2017 6 6
AcqFileDate:2017 6 6
Institution:
Operator:
ExperimentID:20170606
AnalyserWorkFcn:4.250 eV
PlatenID:MIDATA001
PlatenDesc:
PhotoFilename:MIDATA001.101.pho
SXIFilename:
SourceAnalyserAngle:45.0 d
AnalyserSolidAngle:0.38 sr
SputterIon:Ar+
SputterCurrent:0.000 uA
SputterEnergy:0.107 kV
FloatVolt:-100.0 V
SputterRaster:0.00 0.00 mm
AnalyserMode:FAT
SurvNumCycles:2
NoSpectralReg:4
SpectralRegDef:1 1 Cu2p 29 501 -0.1000 974.0000 924.0000 973.0000 925.0000 0.431136 55.00 AREA
SpectralRegDef2:1 50.0 2 0 6 1
SpectralRegDef:2 1 Cu_LMM 29 801 -0.1000 620.0000 540.0000 619.0000 541.0000 1.077840 55.00 AREA
SpectralRegDef2:2 80.0 5 0 6 1
SpectralRegDef:3 1 O1s 8 201 -0.1000 543.0000 523.0000 542.0000 524.0000 1.077840 55.00 AREA
SpectralRegDef2:3 20.0 5 0 6 1
SpectralRegDef:4 1 C1s 6 201 -0.1000 298.0000 278.0000 297.0000 279.0000 1.077840 55.00 AREA
SpectralRegDef2:4 20.0 5 0 6 1
NoSpatialArea:1
SpatialAreaDef:1 HP3 4 (-20651.4 -21601.7 24061.0 45.0 0.0) (-19251.4 -21601.7 24061.0 45.0 0.0) (-19251.4 -21501.7 24061.0 45.0 0.0) (-20651.4 -21501.7 24061.0 45.0 0.0)
SpatialAreaDesc:1 #3 Cu foil
XraySource:Al 1486.6 mono
XrayPower:103.08 W
XrayBeamDiameter:100.0 um
XRayHighPower:yes
NeutralizerCurrent:20.0 uA
NeutralizerEnergy:1.40 V
StagePosition:-20.1680 23.2019 24.0607 45.0000 0.0044
ImageSizeXY: 1400.0000 100.0000 Area


//Area Comment,RegionNo,AtomicName,Area No,XLabel,YLabel,DataCount
#3 Cu foil
1
Cu2p
1
Binding Energy(eV),reverse
Intensity(cps)
501
974.0000	53572.4219
973.9000	53924.9805
973.8000	53535.3125
973.7000	53760.2969
973.6000	53481.9648
973.5000	53303.3672
973.4000	53368.3125
973.3000	53382.2266
973.2000	52677.1133
973.1000	52644.6406
973.0000	53192.0313
972.9000	52987.9219
972.8000	52832.5156
972.7000	53157.2422
972.6000	53117.8086
972.5000	53215.2266
972.4000	53038.9492
972.3000	52790.7656
972.2000	53449.4922
972.1000	52895.1406
972.0000	52231.7773
971.9000	52363.9883
971.8000	52586.6563
971.7000	52452.1250
971.6000	52749.0156
971.5000	53073.7383
971.4000	52725.8203
971.3000	53038.9492
971.2000	52920.6563
971.1000	51883.8594
971.0000	52380.2227
970.9000	52735.1016
970.8000	52934.5742
970.7000	52535.6250
970.6000	53456.4492
970.5000	52352.3906
970.4000	52271.2109
970.3000	52317.5977
970.2000	52410.3750
970.1000	51953.4453
970.0000	52412.6953
969.9000	52774.5313
969.8000	51923.2930
969.7000	53391.5039
969.6000	52347.7500
969.5000	52268.8906
969.4000	52535.6250
969.3000	53006.4766
969.2000	52459.0859
969.1000	52939.2109
969.0000	52398.7773
968.9000	52646.9609
968.8000	53117.8086
968.7000	53138.6836
968.6000	52994.8789
968.5000	53549.2266
968.4000	52749.0156
968.3000	53301.0469
968.2000	52486.9180
968.1000	52725.8203
968.0000	52651.5977
967.9000	53298.7266
967.8000	52403.4180
967.7000	52899.7813
967.6000	53006.4766
967.5000	53008.7969
967.4000	53748.6992
967.3000	53101.5742
967.2000	53354.3945
967.1000	53368.3125
967.0000	53377.5898
966.9000	52922.9766
966.8000	52442.8477
966.7000	53718.5469
966.6000	53059.8242
966.5000	53558.5078
966.4000	53558.5078
966.3000	53175.7969
966.2000	53697.6719
966.1000	53182.7539
966.0000	54163.8828
965.9000	53727.8242
965.8000	53628.0898
965.7000	54136.0508
965.6000	54013.1172
965.5000	54235.7852
965.4000	54119.8125
965.3000	54027.0352
965.2000	53706.9492
965.1000	53590.9766
965.0000	53623.4492
964.9000	53226.8242
964.8000	52994.8789
964.7000	52927.6133
964.6000	53059.8242
964.5000	52190.0273
964.4000	52825.5586
964.3000	53141.0039
964.2000	52526.3477
964.1000	51860.6641
964.0000	52002.1523
963.9000	50983.9141
963.8000	51204.2617
963.7000	51246.0117
963.6000	51014.0664
963.5000	50784.4375
963.4000	51436.2070
963.3000	50387.8125
963.2000	51000.1484
963.1000	50543.2148
963.0000	50529.3008
962.9000	50529.3008
962.8000	50083.9648
962.7000	50796.0352
962.6000	50260.2422
962.5000	50058.4492
962.4000	49896.0898
962.3000	50237.0469
962.2000	49891.4492
962.1000	50543.2148
962.0000	49768.5195
961.9000	49856.6563
961.8000	50373.8945
961.7000	50714.8555
961.6000	49942.4766
961.5000	50673.1055
961.4000	50269.5195
961.3000	50411.0078
961.2000	50237.0469
961.1000	50860.9805
961.0000	50042.2148
960.9000	50854.0234
960.8000	50336.7852
960.7000	50726.4531
960.6000	49854.3398
960.5000	50392.4531
960.4000	50793.7188
960.3000	50364.6172
960.2000	50656.8711
960.1000	50540.8984
960.0000	50199.9375
959.9000	51104.5234
959.8000	50111.7969
959.7000	50812.2734
959.6000	50898.0938
959.5000	51171.7891
959.4000	51188.0234
959.3000	51199.6211
959.2000	50554.8125
959.1000	50719.4961
959.0000	50230.0898
958.9000	50791.3984
958.8000	50742.6875
958.7000	51385.1797
958.6000	50907.3711
958.5000	51802.6797
958.4000	50956.0781
958.3000	50960.7188
958.2000	51447.8047
958.1000	51345.7461
958.0000	50863.3008
957.9000	51823.5547
957.8000	51269.2031
957.7000	51918.6523
957.6000	51392.1367
957.5000	52751.3359
957.4000	51684.3867
957.3000	51807.3164
957.2000	51795.7227
957.1000	51774.8477
957.0000	52387.1836
956.9000	51779.4844
956.8000	52686.3906
956.7000	51918.6523
956.6000	51763.2500
956.5000	51900.0977
956.4000	51818.9141
956.3000	52032.3047
956.2000	53050.5469
956.1000	52605.2109
956.0000	52391.8203
955.9000	52793.0859
955.8000	52909.0586
955.7000	53236.1016
955.6000	53031.9883
955.5000	53866.9922
955.4000	53472.6875
955.3000	53822.9219
955.2000	53614.1719
955.1000	53860.0352
955.0000	54507.1641
954.9000	54514.1211
954.8000	55112.5391
954.7000	55676.1680
954.6000	56418.3906
954.5000	56590.0313
954.4000	57958.5078
954.3000	58248.4414
954.2000	59612.2813
954.1000	61409.8555
954.0000	62576.5430
953.9000	63789.6172
953.8000	65807.5391
953.7000	68604.8047
953.6000	70483.5625
953.5000	74419.6719
953.4000	78091.3672
953.3000	81598.3828
953.2000	86348.6250
953.1000	89581.9453
953.0000	94167.5000
952.9000	97871.6719
952.8000	101786.9063
952.7000	104120.2813
952.6000	106098.7734
952.5000	106203.1484
952.4000	106743.5781
952.3000	102865.4531
952.2000	99008.2031
952.1000	95041.9375
952.0000	89827.8047
951.9000	84346.9375
951.8000	79413.4531
951.7000	74491.5781
951.6000	69868.9063
951.5000	67407.9609
951.4000	63121.6133
951.3000	62184.5547
951.2000	59728.2539
951.1000	58575.4844
951.0000	56682.8086
950.9000	55618.1797
950.8000	54261.3008
950.7000	53792.7695
950.6000	52987.9219
950.5000	52728.1406
950.4000	51580.0117
950.3000	51960.4023
950.2000	50652.2305
950.1000	50401.7305
950.0000	49819.5469
949.9000	50517.7031
949.8000	50030.6172
949.7000	50042.2148
949.6000	49355.6563
949.5000	49745.3242
949.4000	48940.4727
949.3000	48894.0859
949.2000	48898.7227
949.1000	48673.7383
949.0000	48645.9023
948.9000	48757.2383
948.8000	48295.6641
948.7000	48815.2227
948.6000	49659.5039
948.5000	48163.4570
948.4000	48580.9570
948.3000	47917.5938
948.2000	48631.9844
948.1000	48302.6250
948.0000	48297.9844
947.9000	48838.4180
947.8000	48407.0000
947.7000	48741.0000
947.6000	49446.1133
947.5000	48798.9883
947.4000	49260.5586
947.3000	49845.0586
947.2000	49269.8359
947.1000	49557.4492
947.0000	49703.5742
946.9000	49446.1133
946.8000	49613.1133
946.7000	50216.1719
946.6000	49541.2109
946.5000	49151.5430
946.4000	48993.8203
946.3000	48627.3477
946.2000	48560.0820
946.1000	48434.8320
946.0000	48105.4688
945.9000	47868.8867
945.8000	47578.9531
945.7000	47685.6484
945.6000	47678.6914
945.5000	47122.0234
945.4000	47282.0625
945.3000	47783.0664
945.2000	47319.1758
945.1000	46894.7148
945.0000	46697.5625
944.9000	45860.2383
944.8000	45672.3633
944.7000	45781.3789
944.6000	45946.0586
944.5000	46305.5742
944.4000	45957.6563
944.3000	45203.8320
944.2000	45391.7109
944.1000	45187.5977
944.0000	44904.6250
943.9000	45073.9453
943.8000	45136.5703
943.7000	44403.6211
943.6000	44705.1523
943.5000	44164.7188
943.4000	43696.1875
943.3000	44025.5508
943.2000	43318.1172
943.1000	43608.0508
943.0000	43888.7031
942.9000	42977.1563
942.8000	42759.1289
942.7000	42251.1680
942.6000	42056.3359
942.5000	42033.1406
942.4000	41873.0977
942.3000	41576.2070
942.2000	41819.7500
942.1000	41225.9688
942.0000	40850.2188
941.9000	40699.4531
941.8000	41569.2500
941.7000	40622.9141
941.6000	40683.2188
941.5000	40738.8867
941.4000	41091.4414
941.3000	40611.3164
941.2000	40602.0391
941.1000	40991.7070
941.0000	40295.8711
940.9000	41028.8164
940.8000	40775.9961
940.7000	40711.0508
940.6000	40662.3438
940.5000	40219.3281
940.4000	40676.2617
940.3000	40894.2891
940.2000	40660.0234
940.1000	40724.9688
940.0000	41040.4141
939.9000	40961.5547
939.8000	41084.4844
939.7000	41267.7188
939.6000	41232.9297
939.5000	40479.1055
939.4000	41397.6094
939.3000	40954.5938
939.2000	41546.0547
939.1000	41332.6641
939.0000	41135.5117
938.9000	41439.3594
938.8000	41606.3594
938.7000	41151.7461
938.6000	41833.6680
938.5000	42325.3906
938.4000	41826.7070
938.3000	41685.2227
938.2000	41991.3906
938.1000	42102.7227
938.0000	42149.1133
937.9000	42151.4336
937.8000	42450.6406
937.7000	42791.6016
937.6000	41849.9023
937.5000	42392.6563
937.4000	42211.7383
937.3000	42513.2656
937.2000	42534.1406
937.1000	41891.6523
937.0000	42724.3359
936.9000	42183.9063
936.8000	42179.2656
936.7000	42404.2539
936.6000	41940.3633
936.5000	42631.5586
936.4000	41893.9727
936.3000	42670.9883
936.2000	42367.1406
936.1000	42919.1719
936.0000	42645.4766
935.9000	42466.8789
935.8000	42710.4219
935.7000	43023.5469
935.6000	43169.6719
935.5000	42842.6289
935.4000	43069.9375
935.3000	43524.5508
935.2000	44350.2734
935.1000	44069.6211
935.0000	44951.0117
934.9000	45435.7773
934.8000	46396.0313
934.7000	46335.7266
934.6000	48302.6250
934.5000	48870.8906
934.4000	50891.1328
934.3000	52640.0039
934.2000	55256.3477
934.1000	58932.6797
934.0000	62901.2656
933.9000	67746.6016
933.8000	74187.7266
933.7000	81095.0625
933.6000	90384.4688
933.5000	100265.3438
933.4000	112658.1875
933.3000	125463.8906
933.2000	141426.3750
933.1000	156345.0938
933.0000	171813.5313
932.9000	185465.8438
932.8000	196968.0156
932.7000	201043.2969
932.6000	199663.2188
932.5000	191044.1250
932.4000	176213.5313
932.3000	157449.1563
932.2000	137886.8906
932.1000	118004.5313
932.0000	100564.5547
931.9000	86374.1406
931.8000	75426.3125
931.7000	67134.2656
931.6000	60250.1289
931.5000	54483.9688
931.4000	51102.2031
931.3000	47704.2031
931.2000	45359.2383
931.1000	43042.1016
931.0000	41733.9297
930.9000	40680.8984
930.8000	39342.5742
930.7000	38152.6953
930.6000	37591.3867
930.5000	36533.7148
930.4000	35726.5469
930.3000	35264.9727
930.2000	35652.3242
930.1000	35051.5859
930.0000	34673.5156
929.9000	34307.0391
929.8000	34063.4961
929.7000	33859.3867
929.6000	33977.6758
929.5000	33070.7695
929.4000	32977.9922
929.3000	33135.7148
929.2000	32755.3262
929.1000	33033.6602
929.0000	32507.1445
928.9000	32537.2969
928.8000	32078.0449
928.7000	32045.5723
928.6000	32363.3379
928.5000	32637.0332
928.4000	32279.8379
928.3000	32490.9082
928.2000	31667.5020
928.1000	32117.4766
928.0000	32224.1699
927.9000	32033.9746
927.8000	32435.2402
927.7000	31959.7520
927.6000	31507.4590
927.5000	31623.4316
927.4000	31681.4180
927.3000	31477.3066
927.2000	31512.0977
927.1000	31590.9590
927.0000	32189.3789
926.9000	31871.6133
926.8000	31632.7090
926.7000	31806.6680
926.6000	31841.4609
926.5000	31461.0703
926.4000	32149.9473
926.3000	31625.7520
926.2000	31841.4609
926.1000	31502.8203
926.0000	31609.5156
925.9000	31231.4453
925.8000	31799.7109
925.7000	31519.0566
925.6000	31632.7090
925.5000	31894.8086
925.4000	31892.4883
925.3000	30820.9004
925.2000	31359.0137
925.1000	31618.7930
925.0000	31465.7090
924.9000	31751.0020
924.8000	31667.5020
924.7000	31811.3086
924.6000	31486.5840
924.5000	31479.6250
924.4000	31943.5176
924.3000	31999.1836
924.2000	31245.3613
924.1000	31880.8906
924.0000	31639.6680

//Area Comment,RegionNo,AtomicName,Area No,XLabel,YLabel,DataCount
#3 Cu foil
2
Cu_LMM
1
Binding Energy(eV),reverse
Intensity(cps)
801
620.0000	39808.3203
619.9000	40006.8672
619.8000	39900.1719
619.7000	39827.8047
619.6000	39791.6211
619.5000	39838.9375
619.4000	39821.3086
619.3000	39970.6836
619.2000	39591.2188
619.1000	39649.6680
619.0000	39825.9492
618.9000	39876.0469
618.8000	39392.6758
618.7000	39351.8516
618.6000	39515.1406
618.5000	39549.4688
618.4000	39220.1055
618.3000	39396.3867
618.2000	39398.2422
618.1000	39254.4336
618.0000	39347.2148
617.9000	39509.5742
617.8000	39200.6250
617.7000	39141.2461
617.6000	39118.0508
617.5000	39421.4336
617.4000	39320.3086
617.3000	39131.0391
617.2000	39444.6289
617.1000	39383.3945
617.0000	39303.6055
616.9000	39103.2070
616.8000	38886.1055
616.7000	38815.5938
616.6000	38850.8516
616.5000	39080.9414
616.4000	38816.5234
616.3000	38759.9258
616.2000	39121.7617
616.1000	38892.6016
616.0000	39054.9609
615.9000	39012.2852
615.8000	39272.9922
615.7000	39188.5625
615.6000	39165.3672
615.5000	38964.0391
615.4000	39085.5781
615.3000	39174.6445
615.2000	39142.1719
615.1000	39420.5078
615.0000	39151.4492
614.9000	38877.7539
614.8000	38977.0273
614.7000	39221.9609
614.6000	39035.4766
614.5000	39049.3945
614.4000	38807.2422
614.3000	39047.5391
614.2000	39098.5664
614.1000	39059.6016
614.0000	38982.5938
613.9000	39030.8398
613.8000	38899.0938
613.7000	39150.5234
613.6000	39020.6328
613.5000	38766.4219
613.4000	39088.3633
613.3000	39164.4414
613.2000	39433.4961
613.1000	38690.3438
613.0000	38712.6094
612.9000	39017.8516
612.8000	39167.2227
612.7000	39125.4727
612.6000	38831.3672
612.5000	39236.8086
612.4000	39328.6563
612.3000	39075.3711
612.2000	39335.1523
612.1000	39332.3672
612.0000	39491.9453
611.9000	39403.8086
611.8000	39349.9961
611.7000	39114.3398
611.6000	39491.0195
611.5000	39150.5234
611.4000	39444.6289
611.3000	39301.7500
611.2000	39443.7031
611.1000	39225.6719
611.0000	39476.1758
610.9000	39351.8516
610.8000	39298.0391
610.7000	39841.7188
610.6000	39467.8242
610.5000	39443.7031
610.4000	39671.9375
610.3000	39250.7227
610.2000	39410.3008
610.1000	39690.4922
610.0000	39915.0156
609.9000	39676.5742
609.8000	39765.6406
609.7000	39615.3398
609.6000	39571.7344
609.5000	39656.1641
609.4000	39901.0977
609.3000	39701.6250
609.2000	39734.0977
609.1000	40100.5703
609.0000	39958.6211
608.9000	39597.7148
608.8000	39904.8086
608.7000	39791.6211
608.6000	40139.5391
608.5000	39889.9648
608.4000	39849.1445
608.3000	39956.7656
608.2000	40103.3555
608.1000	40454.0547
608.0000	40062.5313
607.9000	40124.6953
607.8000	40081.0898
607.7000	40292.6211
607.6000	40111.7031
607.5000	40248.0898
607.4000	40235.1016
607.3000	40118.1992
607.2000	40505.0859
607.1000	40328.8047
607.0000	40176.6484
606.9000	40413.2344
606.8000	40658.1680
606.7000	40783.4180
606.6000	40372.4102
606.5000	40557.9688
606.4000	40349.2188
606.3000	40694.3516
606.2000	40603.4297
606.1000	40652.6016
606.0000	40951.3477
605.9000	40794.5508
605.8000	40616.4180
605.7000	40968.9766
605.6000	40784.3477
605.5000	41085.8750
605.4000	41124.8438
605.3000	41273.2891
605.2000	40963.4102
605.1000	41210.1992
605.0000	41456.0586
604.9000	41341.0156
604.8000	41587.8047
604.7000	41508.9453
604.6000	41696.3555
604.5000	41528.4258
604.4000	41788.2070
604.3000	41155.4609
604.2000	41533.9922
604.1000	41404.1055
604.0000	41745.5273
603.9000	41769.6523
603.8000	41803.9766
603.7000	41846.6563
603.6000	41151.7461
603.5000	41464.4102
603.4000	41552.5508
603.3000	41632.3398
603.2000	41358.6445
603.1000	41358.6445
603.0000	41620.2773
602.9000	41501.5234
602.8000	41811.4023
602.7000	41893.0469
602.6000	41816.9688
602.5000	41822.5352
602.4000	41754.8047
602.3000	41597.0820
602.2000	41867.0664
602.1000	41845.7266
602.0000	42273.4375
601.9000	41874.4883
601.8000	42005.3086
601.7000	41838.3047
601.6000	41743.6719
601.5000	41590.5898
601.4000	42112.9297
601.3000	41888.4063
601.2000	42139.8359
601.1000	42156.5352
601.0000	42208.4922
600.9000	42047.9844
600.8000	42038.7070
600.7000	41742.7461
600.6000	42133.3398
600.5000	41791.9180
600.4000	42072.1055
600.3000	42352.2969
600.2000	42168.5977
600.1000	41956.1328
600.0000	42048.9141
599.9000	42391.2656
599.8000	42333.7422
599.7000	42363.4297
599.6000	42624.1367
599.5000	42334.6680
599.4000	42201.9961
599.3000	42661.2500
599.2000	42343.0195
599.1000	42492.3906
599.0000	42620.4258
598.9000	42403.3242
598.8000	43027.7227
598.7000	42607.4375
598.6000	42789.2813
598.5000	42838.4531
598.4000	42843.0938
598.3000	42833.8164
598.2000	43230.9063
598.1000	43190.0820
598.0000	43136.2734
597.9000	42889.4844
597.8000	42856.0820
597.7000	43079.6797
597.6000	43015.6602
597.5000	43422.9570
597.4000	43286.5742
597.3000	43319.0469
597.2000	43095.4492
597.1000	43176.1680
597.0000	43252.2461
596.9000	43714.2813
596.8000	43270.8008
596.7000	43408.1133
596.6000	43212.3516
596.5000	43220.6992
596.4000	43457.2852
596.3000	43635.4180
596.2000	43818.1914
596.1000	43710.5703
596.0000	43347.8086
595.9000	43775.5156
595.8000	43792.2148
595.7000	43701.2930
595.6000	43686.4453
595.5000	43662.3242
595.4000	43705.0039
595.3000	43725.4141
595.2000	43812.6250
595.1000	43760.6680
595.0000	43958.2852
594.9000	44140.1328
594.8000	44237.5508
594.7000	44051.9922
594.6000	44037.1484
594.5000	44072.4023
594.4000	44485.2656
594.3000	44206.9336
594.2000	44101.1641
594.1000	44433.3125
594.0000	44077.0430
593.9000	44736.6953
593.8000	44526.0898
593.7000	44886.0703
593.6000	44496.3984
593.5000	44393.4180
593.4000	44809.0625
593.3000	44311.7734
593.2000	44746.9023
593.1000	44596.6016
593.0000	44557.6328
592.9000	44387.8516
592.8000	44716.2852
592.7000	44438.8789
592.6000	44837.8242
592.5000	44215.2813
592.4000	44872.1523
592.3000	44628.1445
592.2000	44657.8359
592.1000	44829.4727
592.0000	44796.0742
591.9000	44959.3633
591.8000	44951.9414
591.7000	45052.1406
591.6000	44608.6602
591.5000	45349.9609
591.4000	44823.9063
591.3000	45177.3906
591.2000	44928.7461
591.1000	44913.9023
591.0000	44827.6172
590.9000	45196.8750
590.8000	45118.9414
590.7000	45167.1875
590.6000	45367.5859
590.5000	45147.7031
590.4000	45077.1914
590.3000	45250.6875
590.2000	44819.2695
590.1000	45029.8750
590.0000	45218.2148
589.9000	45650.5586
589.8000	45117.0859
589.7000	45449.2305
589.6000	45108.7344
589.5000	45167.1875
589.4000	45540.1563
589.3000	45936.3164
589.2000	45549.4336
589.1000	45657.9844
589.0000	45566.1328
588.9000	45367.5859
588.8000	45416.7578
588.7000	45596.7500
588.6000	45569.8438
588.5000	45584.6875
588.4000	45544.7930
588.3000	45503.0430
588.2000	45244.1914
588.1000	45447.3750
588.0000	45603.2422
587.9000	45719.2148
587.8000	45433.4609
587.7000	45926.1133
587.6000	45977.1406
587.5000	45553.1445
587.4000	45634.7891
587.3000	45388.0000
587.2000	46107.9570
587.1000	45492.8359
587.0000	45814.7773
586.9000	45973.4297
586.8000	45901.0625
586.7000	45693.2383
586.6000	46019.8164
586.5000	45944.6680
586.4000	45585.6172
586.3000	46122.8008
586.2000	45838.8984
586.1000	45779.5234
586.0000	46102.3906
585.9000	45645.9219
585.8000	46124.6563
585.7000	45841.6836
585.6000	45755.3984
585.5000	46030.9492
585.4000	45716.4336
585.3000	45788.8008
585.2000	45907.5547
585.1000	46159.9141
585.0000	46148.7773
584.9000	46091.2578
584.8000	46198.8789
584.7000	45677.4648
584.6000	45976.2109
584.5000	45740.5547
584.4000	45949.3047
584.3000	45937.2461
584.2000	45820.3438
584.1000	46082.9063
584.0000	45983.6328
583.9000	45651.4883
583.8000	46171.9727
583.7000	45785.0898
583.6000	45927.0391
583.5000	46231.3516
583.4000	46098.6797
583.3000	46046.7227
583.2000	45974.3555
583.1000	45537.3711
583.0000	46034.6602
582.9000	46229.4961
582.8000	46159.9141
582.7000	46565.3516
582.6000	46420.6172
582.5000	45873.2266
582.4000	46320.4180
582.3000	46372.3750
582.2000	46594.1133
582.1000	46351.0352
582.0000	46514.3242
581.9000	46656.2773
581.8000	46505.9766
581.7000	46828.8438
581.6000	46828.8438
581.5000	46546.7969
581.4000	46991.2031
581.3000	46920.6914
581.2000	46875.2305
581.1000	46644.2148
581.0000	47163.7734
580.9000	47646.2188
580.8000	47633.2305
580.7000	47485.7109
580.6000	47766.8281
580.5000	47472.7227
