//----------------------------------------
//Multipak Exporter  1.2.5
//Load file from XPS_PHI_QUANTERA_survey.spe
//----------------------------------------
//----------------------------------------
//HEADER INFORMATION
Platform:PC
Technique:XPS
FileType:SPECTRUM
FileDesc:MIDATA001
SoftwareVersion:SS 3.6.1.16
InstrumentModel:PHI Quantera SXM
AcqFilename:C:\Datafiles\Butuzai\XPS_PHI_QUANTERA_survey.spe
FileDate:2017 6 6
AcqFileDate:2017 6 6
Institution:
Operator:
ExperimentID:20170606
AnalyserWorkFcn:4.250 eV
PlatenID:MIDATA001
PlatenDesc:
PhotoFilename:MIDATA001.101.pho
SXIFilename:
SourceAnalyserAngle:45.0 d
AnalyserSolidAngle:0.38 sr
SputterIon:Ar+
SputterCurrent:0.000 uA
SputterEnergy:0.107 kV
FloatVolt:-100.0 V
SputterRaster:0.00 0.00 mm
AnalyserMode:FAT
SurvNumCycles:1
NoSpectralReg:1
SpectralRegDef:1 1 Su1s 111 2801 -0.5000 1380.0000 -20.0000 1379.0000 -19.0000 0.251496 280.00 AREA
SpectralRegDef2:1 1400.0 7 0 2 1
NoSpatialArea:1
SpatialAreaDef:1 HP3 4 (-20651.4 -21601.7 24061.0 45.0 0.0) (-19251.4 -21601.7 24061.0 45.0 0.0) (-19251.4 -21501.7 24061.0 45.0 0.0) (-20651.4 -21501.7 24061.0 45.0 0.0)
SpatialAreaDesc:1 #3 Cu foil
XraySource:Al 1486.6 mono
XrayPower:103.08 W
XrayBeamDiameter:100.0 um
XRayHighPower:yes
NeutralizerCurrent:20.0 uA
NeutralizerEnergy:1.40 V
StagePosition:-20.1680 23.2019 24.0607 45.0000 0.0044
ImageSizeXY: 1400.0000 100.0000 Area


//Area Comment,RegionNo,AtomicName,Area No,XLabel,YLabel,DataCount
#3 Cu foil
1
Survey
1
Binding Energy(eV),reverse
Intensity(cps)
2801
1380.0000	333762.7500
1379.5000	331214.0000
1379.0000	324780.5000
1378.5000	321317.2500
1378.0000	317070.6563
1377.5000	311372.7500
1377.0000	307913.4375
1376.5000	307682.8125
1376.0000	302529.6563
1375.5000	299404.3750
1375.0000	292982.7813
1374.5000	289766.0313
1374.0000	285082.0625
1373.5000	279650.5625
1373.0000	277360.2813
1372.5000	275936.7813
1372.0000	268385.9688
1371.5000	266930.6875
1371.0000	263451.5000
1370.5000	260620.4531
1370.0000	255674.0469
1369.5000	253960.2969
1369.0000	252691.8906
1368.5000	248445.2969
1368.0000	244202.6875
1367.5000	241816.9688
1367.0000	240560.4844
1366.5000	238274.1719
1366.0000	236663.7969
1365.5000	234707.5156
1365.0000	232822.7813
1364.5000	231594.1406
1364.0000	230810.8281
1363.5000	227506.5938
1363.0000	225669.5938
1362.5000	224027.4219
1362.0000	221379.2656
1361.5000	222285.8438
1361.0000	219661.5469
1360.5000	216814.5781
1360.0000	216917.9688
1359.5000	215335.4375
1359.0000	214452.7188
1358.5000	212925.8594
1358.0000	212349.2969
1357.5000	211355.2500
1357.0000	209057.0000
1356.5000	207140.4688
1356.0000	207363.1406
1355.5000	204198.0781
1355.0000	206496.3281
1354.5000	204003.2500
1354.0000	204261.7031
1353.5000	202850.1406
1353.0000	201116.5156
1352.5000	203617.5469
1352.0000	199995.2344
1351.5000	198838.1563
1351.0000	200480.3281
1350.5000	196913.6719
1350.0000	198030.9844
1349.5000	197040.9063
1349.0000	196559.7813
1348.5000	196007.0938
1348.0000	197466.3594
1347.5000	195446.4531
1347.0000	194710.8438
1346.5000	194404.6875
1346.0000	194750.6094
1345.5000	194376.8438
1345.0000	193688.9688
1344.5000	193211.8281
1344.0000	193867.8906
1343.5000	193219.7656
1343.0000	193669.0781
1342.5000	193092.5313
1342.0000	191506.0313
1341.5000	192090.5313
1341.0000	192102.4531
1340.5000	192249.5781
1340.0000	192694.9063
1339.5000	192062.7031
1339.0000	192352.9531
1338.5000	191573.6250
1338.0000	191764.4844
1337.5000	192849.9844
1337.0000	192730.7031
1336.5000	191680.9844
1336.0000	192667.0781
1335.5000	192527.9063
1335.0000	192782.3906
1334.5000	193637.2813
1334.0000	191335.0469
1333.5000	193887.7813
1333.0000	190977.1875
1332.5000	191776.4063
1332.0000	191565.6719
1331.5000	192106.4375
1331.0000	191434.4531
1330.5000	192400.6719
1330.0000	192718.7656
1329.5000	193490.1563
1329.0000	193533.8906
1328.5000	194587.5938
1328.0000	192285.3594
1327.5000	194193.9375
1327.0000	192933.4844
1326.5000	194897.7344
1326.0000	193207.8438
1325.5000	196424.5938
1325.0000	195251.6094
1324.5000	196205.9063
1324.0000	194265.5156
1323.5000	196170.1250
1323.0000	197203.9375
1322.5000	197017.0469
1322.0000	196977.2813
1321.5000	196595.5781
1321.0000	197251.6406
1320.5000	196965.3594
1320.0000	197879.8906
1319.5000	199470.3750
1319.0000	198830.2031
1318.5000	197720.8438
1318.0000	201386.9063
1317.5000	198846.1094
1317.0000	200571.7813
1316.5000	201100.6094
1316.0000	201776.5625
1315.5000	201446.5469
1315.0000	202341.1875
1314.5000	201331.2344
1314.0000	203430.6719
1313.5000	203780.5781
1313.0000	203768.6406
1312.5000	202730.8594
1312.0000	204826.3125
1311.5000	206015.2031
1311.0000	204388.9375
1310.5000	206667.2969
1310.0000	207498.3281
1309.5000	206711.0469
1309.0000	209188.2188
1308.5000	211494.4219
1308.0000	211621.6563
1307.5000	210814.4844
1307.0000	213045.1406
1306.5000	212146.5156
1306.0000	213776.7656
1305.5000	215108.7813
1305.0000	215566.0469
1304.5000	218715.2031
1304.0000	217069.0625
1303.5000	218794.7344
1303.0000	218206.2500
1302.5000	218743.0469
1302.0000	219212.2344
1301.5000	217800.6875
1301.0000	219502.5000
1300.5000	219482.6094
1300.0000	219434.9063
1299.5000	220476.6719
1299.0000	221872.3125
1298.5000	221745.0781
1298.0000	221741.0938
1297.5000	223411.1094
1297.0000	223454.8438
1296.5000	224560.2344
1296.0000	223387.2500
1295.5000	227538.4063
1295.0000	226158.6719
1294.5000	227832.6563
1294.0000	226683.5313
1293.5000	228512.5781
1293.0000	226862.4531
1292.5000	228914.1719
1292.0000	229796.8906
1291.5000	231037.4688
1291.0000	231729.3281
1290.5000	232468.9063
1290.0000	231645.8281
1289.5000	233546.4531
1289.0000	232142.8594
1288.5000	234258.2031
1288.0000	233657.7969
1287.5000	234866.5625
1287.0000	234608.1094
1286.5000	235932.1875
1286.0000	235606.1406
1285.5000	236178.7031
1285.0000	236592.2344
1284.5000	236182.6875
1284.0000	239936.2188
1283.5000	238393.4531
1283.0000	240139.0156
1282.5000	239634.0313
1282.0000	240691.7031
1281.5000	240803.0313
1281.0000	240799.0625
1280.5000	239236.4063
1280.0000	242286.1563
1279.5000	241264.2813
1279.0000	242139.0469
1278.5000	241335.8438
1278.0000	243912.4219
1277.5000	241948.1875
1277.0000	244878.6406
1276.5000	245753.4063
1276.0000	246095.3594
1275.5000	244803.0938
1275.0000	245244.4531
1274.5000	247956.2344
1274.0000	248266.3750
1273.5000	247228.5781
1273.0000	248409.5156
1272.5000	247920.4375
1272.0000	248687.8594
1271.5000	248453.2500
1271.0000	248055.6406
1270.5000	247944.2969
1270.0000	250886.6875
1269.5000	249546.7188
1269.0000	252318.1250
1268.5000	253825.1094
1268.0000	252632.2500
1267.5000	253351.9375
1267.0000	253113.3750
1266.5000	252075.5781
1266.0000	255196.9063
1265.5000	255173.0469
1265.0000	254564.6875
1264.5000	255884.7813
1264.0000	256342.0469
1263.5000	256314.2188
1263.0000	257729.7500
1262.5000	255451.3750
1262.0000	256930.5313
1261.5000	258417.6250
1261.0000	258560.7656
1260.5000	259980.2813
1260.0000	258075.6719
1259.5000	260513.0938
1259.0000	260791.4219
1258.5000	261189.0469
1258.0000	260099.5625
1257.5000	263630.4375
1257.0000	262346.1250
1256.5000	263208.9688
1256.0000	263105.5625
1255.5000	265348.1563
1255.0000	265431.6563
1254.5000	265690.1250
1254.0000	265065.8438
1253.5000	266556.9375
1253.0000	269745.8438
1252.5000	266715.9688
1252.0000	267694.1250
1251.5000	269463.5313
1251.0000	268441.6563
1250.5000	269511.2500
1250.0000	272652.4375
1249.5000	271177.2813
1249.0000	270688.1875
1248.5000	272107.7188
1248.0000	272652.4375
1247.5000	274119.6563
1247.0000	274127.6250
1246.5000	271972.5313
1246.0000	274489.4688
1245.5000	273566.9688
1245.0000	275881.1250
1244.5000	276604.8125
1244.0000	279304.6563
1243.5000	276334.4063
1243.0000	278290.7188
1242.5000	281376.2500
1242.0000	280402.0625
1241.5000	281590.9688
1241.0000	280437.8750
1240.5000	282123.7813
1240.0000	281893.1563
1239.5000	283849.4375
1239.0000	282481.6250
1238.5000	284310.6875
1238.0000	285746.0938
1237.5000	283487.6250
1237.0000	284362.3750
1236.5000	285348.4688
1236.0000	285714.2813
1235.5000	286871.3750
1235.0000	286509.5313
1234.5000	288473.7813
1234.0000	289125.8750
1233.5000	289551.3125
1233.0000	290306.8125
1232.5000	290282.9375
1232.0000	292426.1250
1231.5000	292271.0625
1231.0000	291770.0625
1230.5000	295094.1563
1230.0000	294684.5938
1229.5000	296191.5938
1229.0000	296159.7813
1228.5000	295098.1250
1228.0000	299217.4688
1227.5000	297611.0938
1227.0000	299654.8750
1226.5000	300851.7188
1226.0000	299857.6563
1225.5000	299133.9688
1225.0000	300139.9688
1224.5000	301404.4063
1224.0000	302605.2188
1223.5000	301984.9375
1223.0000	302986.9375
1222.5000	303126.0938
1222.0000	304740.4375
1221.5000	304430.2813
1221.0000	304235.4688
1220.5000	303153.9375
1220.0000	305658.9375
1219.5000	304124.1250
1219.0000	304509.8125
1218.5000	304501.8750
1218.0000	305682.7813
1217.5000	305404.4688
1217.0000	303547.5625
1216.5000	304203.6563
1216.0000	304979.0000
1215.5000	305563.5000
1215.0000	305448.1875
1214.5000	306871.6875
1214.0000	306541.6563
1213.5000	305814.0000
1213.0000	308028.7500
1212.5000	305647.0000
1212.0000	307388.5938
1211.5000	306835.9063
1211.0000	308394.5625
1210.5000	307690.7813
1210.0000	306744.4375
1209.5000	308621.2188
1209.0000	308553.6250
1208.5000	310438.3438
1208.0000	310613.2813
1207.5000	311627.2188
1207.0000	312354.8750
1206.5000	313197.8125
1206.0000	314164.0313
1205.5000	311408.5313
1205.0000	312688.8750
1204.5000	314076.5625
1204.0000	313527.8438
1203.5000	318291.3438
1203.0000	314824.0938
1202.5000	316756.5313
1202.0000	316076.5938
1201.5000	317583.5938
1201.0000	317623.3438
1200.5000	316271.4375
1200.0000	319193.9375
1199.5000	318840.0625
1199.0000	320215.8438
1198.5000	320255.5938
1198.0000	320092.5625
1197.5000	320195.9375
1197.0000	322931.5625
1196.5000	322561.7813
1196.0000	321428.5625
1195.5000	324255.6563
1195.0000	324931.5938
1194.5000	325949.5313
1194.0000	325126.4375
1193.5000	326522.0938
1193.0000	324975.3438
1192.5000	326593.6563
1192.0000	326752.7188
1191.5000	329245.7813
1191.0000	326371.0000
1190.5000	330498.3125
1190.0000	327070.8125
1189.5000	331162.3125
1189.0000	330482.4063
1188.5000	330709.0313
1188.0000	331778.6250
1187.5000	331464.5313
1187.0000	332669.3125
1186.5000	333337.3125
1186.0000	334279.6563
1185.5000	332713.0313
1185.0000	333842.2813
1184.5000	334442.6875
1184.0000	334335.3438
1183.5000	334939.7188
1183.0000	335719.0625
1182.5000	336315.5000
1182.0000	337253.8750
1181.5000	337647.5313
1181.0000	337945.7188
1180.5000	340001.4375
1180.0000	340323.5000
1179.5000	339317.5313
1179.0000	341747.0000
1178.5000	340164.4688
1178.0000	341508.4063
1177.5000	340991.5000
1177.0000	341743.0000
1176.5000	343862.3125
1176.0000	342888.1563
1175.5000	343496.5313
1175.0000	344267.9063
1174.5000	343468.6875
1174.0000	345882.2500
1173.5000	345285.8125
1173.0000	347230.1875
1172.5000	347297.7813
1172.0000	347373.3125
1171.5000	349850.5000
1171.0000	346236.1250
1170.5000	352912.1875
1170.0000	350534.4063
1169.5000	351572.1875
1169.0000	351309.7500
1168.5000	351623.8750
1168.0000	351393.2500
1167.5000	353385.3438
1167.0000	355870.4688
1166.5000	354268.0625
1166.0000	354379.4063
1165.5000	354709.4063
1165.0000	358586.2188
1164.5000	356582.2188
1164.0000	358132.9375
1163.5000	356761.1563
1163.0000	358952.0313
1162.5000	360562.4063
1162.0000	358948.0625
1161.5000	358995.7813
1161.0000	358705.5000
1160.5000	361496.8125
1160.0000	359552.4375
1159.5000	362562.4375
1159.0000	363608.1563
1158.5000	363787.0938
1158.0000	364566.4375
1157.5000	364805.0000
1157.0000	364379.5625
1156.5000	366995.9063
1156.0000	369262.3438
1155.5000	367500.8750
1155.0000	367942.2188
1154.5000	366669.8438
1154.0000	369377.6563
1153.5000	368451.1875
1153.0000	372025.8125
1152.5000	370840.8750
1152.0000	372435.3438
1151.5000	368288.1563
1151.0000	370844.8750
1150.5000	370240.4688
1150.0000	372972.1250
1149.5000	371986.0313
1149.0000	373453.2500
1148.5000	374117.2813
1148.0000	374697.8125
1147.5000	375322.0625
1147.0000	375298.2188
1146.5000	374204.7500
1146.0000	377222.6875
1145.5000	376005.9688
1145.0000	377815.1563
1144.5000	377628.2813
1144.0000	380463.3125
1143.5000	379147.1875
1143.0000	378968.2500
1142.5000	381711.8438
1142.0000	382646.2500
1141.5000	380105.4375
1141.0000	382125.3750
1140.5000	382940.4688
1140.0000	383636.3125
1139.5000	383874.9063
1139.0000	386654.2500
1138.5000	385218.8438
1138.0000	382395.7500
1137.5000	384829.1875
1137.0000	387147.3125
1136.5000	387962.4375
1136.0000	389910.7813
1135.5000	391139.4063
1135.0000	391401.8438
1134.5000	392336.2500
1134.0000	394817.4063
1133.5000	392773.6563
1133.0000	395580.8438
1132.5000	394797.5313
1132.0000	392101.6563
1131.5000	394515.2188
1131.0000	394682.2188
1130.5000	396690.2188
1130.0000	399473.5625
1129.5000	396988.4063
1129.0000	399032.1875
1128.5000	399024.2500
1128.0000	399000.3750
1127.5000	399032.1875
1127.0000	399370.1563
1126.5000	399429.8125
1126.0000	398602.7500
1125.5000	398344.3125
1125.0000	399843.3438
1124.5000	399902.9688
1124.0000	402761.8750
1123.5000	403974.6250
1123.0000	401950.7188
1122.5000	405668.4688
1122.0000	404117.7500
1121.5000	406893.1563
1121.0000	401743.9688
1120.5000	406642.6563
1120.0000	407628.7500
1119.5000	408165.5313
1119.0000	408034.3125
1118.5000	406928.9375
1118.0000	407545.2500
1117.5000	411477.7188
1117.0000	408097.9375
1116.5000	409139.7188
1116.0000	409942.9063
1115.5000	411978.7188
1115.0000	410984.6563
1114.5000	415537.4375
1114.0000	412451.8750
1113.5000	413159.6563
1113.0000	413537.4063
1112.5000	416273.0313
1112.0000	415624.9063
1111.5000	415243.1875
1111.0000	417915.1875
1110.5000	414603.0000
1110.0000	416181.5625
1109.5000	415215.3438
1109.0000	416428.0938
1108.5000	415986.7500
1108.0000	417943.0313
1107.5000	415656.7188
1107.0000	412929.0313
1106.5000	418237.2813
1106.0000	417147.7813
1105.5000	418964.9063
1105.0000	420380.4375
1104.5000	416778.0000
1104.0000	418106.0625
1103.5000	418495.7188
1103.0000	421159.7813
1102.5000	423056.4375
1102.0000	425493.8438
1101.5000	426249.3125
1101.0000	430861.7188
1100.5000	434313.0625
1100.0000	434662.9688
1099.5000	438046.7188
1099.0000	439319.1250
1098.5000	445537.9063
1098.0000	446269.5313
1097.5000	449442.5313
1097.0000	448830.1875
1096.5000	449029.0000
1096.0000	448027.0000
1095.5000	444237.6875
1095.0000	439979.1563
1094.5000	438181.9063
1094.0000	432229.5313
1093.5000	433251.4375
1093.0000	424897.4063
1092.5000	426205.5938
1092.0000	422487.8438
1091.5000	420813.8438
1091.0000	418690.5625
1090.5000	417700.4688
1090.0000	418797.9063
1089.5000	417895.3125
1089.0000	415954.9375
1088.5000	417939.0625
1088.0000	414432.0313
1087.5000	419461.9375
1087.0000	416917.1563
1086.5000	417350.5625
1086.0000	415290.9063
1085.5000	416968.8438
1085.0000	417108.0313
1084.5000	415219.3125
1084.0000	417736.2813
1083.5000	418324.7500
1083.0000	417807.8438
1082.5000	418642.8438
1082.0000	419215.4063
1081.5000	419167.6875
1081.0000	417334.6563
1080.5000	417843.6250
1080.0000	419827.7500
1079.5000	418770.0938
1079.0000	419644.8438
1078.5000	419461.9375
1078.0000	422241.3125
1077.5000	420778.0625
1077.0000	422726.4063
1076.5000	423016.6563
1076.0000	423116.0625
1075.5000	424209.5313
1075.0000	423748.2813
1074.5000	425124.0625
1074.0000	425187.6875
1073.5000	425589.2813
1073.0000	427203.6250
1072.5000	428376.5938
1072.0000	427569.4375
1071.5000	428845.7813
1071.0000	428487.9375
1070.5000	430261.3125
1070.0000	430344.8125
1069.5000	430734.5000
1069.0000	432996.9375
1068.5000	430440.2500
1068.0000	432730.5313
1067.5000	432503.9063
1067.0000	432372.6875
1066.5000	434165.9375
1066.0000	432798.1250
1065.5000	434325.0000
1065.0000	436484.0938
1064.5000	437573.5625
1064.0000	433195.7500
1063.5000	437335.0000
1063.0000	438094.4375
1062.5000	435887.6563
1062.0000	438480.1250
1061.5000	438734.6250
1061.0000	440539.8125
1060.5000	439179.9375
1060.0000	440555.7188
1059.5000	442420.5625
1059.0000	440961.2813
1058.5000	441820.1563
1058.0000	444253.5938
1057.5000	444710.8438
1057.0000	444599.5313
1056.5000	447700.9688
1056.0000	444170.0938
1055.5000	448941.5313
1055.0000	447832.1875
1054.5000	447677.0938
1054.0000	448090.6250
1053.5000	448750.6875
1053.0000	450102.5938
1052.5000	449355.0625
1052.0000	451621.5000
1051.5000	449617.5000
1051.0000	452436.6250
1050.5000	449736.7813
1050.0000	454166.2813
1049.5000	450885.9063
1049.0000	454635.4688
1048.5000	454444.5938
1048.0000	457021.1875
1047.5000	456373.0625
1047.0000	454066.8750
1046.5000	457542.0625
1046.0000	458424.7813
1045.5000	457554.0000
1045.0000	457482.4375
1044.5000	461701.1875
1044.0000	460484.4688
1043.5000	462031.2188
1043.0000	463001.4063
1042.5000	462448.7188
1042.0000	462627.6250
1041.5000	462102.7813
1041.0000	464667.4375
1040.5000	463840.3750
1040.0000	464977.5625
1039.5000	465744.9688
1039.0000	469391.1563
1038.5000	466890.1250
1038.0000	469677.4375
1037.5000	469180.4375
1037.0000	470906.0938
1036.5000	471395.1563
1036.0000	470846.4688
1035.5000	473299.7813
1035.0000	470397.1563
1034.5000	473884.2813
1034.0000	473812.7188
1033.5000	473351.4688
1033.0000	479773.0313
1032.5000	478007.5938
1032.0000	477784.9375
1031.5000	477228.2813
1031.0000	478003.6250
1030.5000	478317.7500
1030.0000	478409.1875
1029.5000	478456.9063
1029.0000	480914.2188
1028.5000	482464.9375
1028.0000	483554.4063
1027.5000	485840.7188
1027.0000	483713.4688
1026.5000	485391.4063
1026.0000	485013.6875
1025.5000	487292.0313
1025.0000	485466.9688
1024.5000	489498.8438
1024.0000	488230.4375
1023.5000	488135.0000
1023.0000	490003.8125
1022.5000	493602.2813
1022.0000	493256.3438
1021.5000	493164.9063
1021.0000	494206.6563
1020.5000	492504.8438
1020.0000	493836.8750
1019.5000	494822.9688
1019.0000	496326.0000
1018.5000	496111.2813
1018.0000	496803.1250
1017.5000	496918.4375
1017.0000	498600.3750
1016.5000	501522.8750
1016.0000	499522.8438
1015.5000	500775.3750
1015.0000	499956.2500
1014.5000	501773.3750
1014.0000	504262.5000
1013.5000	507988.1875
1013.0000	507256.5625
1012.5000	506346.0313
1012.0000	510250.6563
1011.5000	510457.4375
1011.0000	508453.4063
1010.5000	510314.2813
1010.0000	508059.7813
1009.5000	509912.6875
1009.0000	510242.7188
1008.5000	511912.7188
1008.0000	512107.5625
1007.5000	510151.2500
1007.0000	514815.3438
1006.5000	514755.6875
1006.0000	514886.9063
1005.5000	515089.7188
1005.0000	514218.9063
1004.5000	517841.2500
1004.0000	517972.4375
1003.5000	521133.5313
1003.0000	520461.5625
1002.5000	520720.0000
1002.0000	523133.5625
1001.5000	523431.7813
1001.0000	524449.6875
1000.5000	525038.1875
1000.0000	526147.5625
999.5000	527511.3750
999.0000	527431.8750
998.5000	530549.1875
998.0000	530390.1250
997.5000	529586.9375
997.0000	532338.5000
996.5000	537125.8125
996.0000	534259.0000
995.5000	537523.4375
995.0000	537165.6250
994.5000	535738.1250
994.0000	538366.4375
993.5000	536891.2500
993.0000	539622.8750
992.5000	537956.8750
992.0000	538278.9375
991.5000	539165.6250
991.0000	539567.2500
990.5000	539304.8125
990.0000	539090.0625
989.5000	542151.7500
989.0000	542358.5000
988.5000	537801.8125
988.0000	543018.5625
987.5000	539917.1250
987.0000	543825.7500
986.5000	542450.0000
986.0000	545261.1875
985.5000	545296.9375
985.0000	544656.7500
984.5000	546513.6875
984.0000	547881.5000
983.5000	548299.0000
983.0000	548923.2500
982.5000	550676.7500
982.0000	552342.7500
981.5000	552505.8125
981.0000	554724.5000
980.5000	556975.0625
980.0000	554728.5000
979.5000	562366.8125
979.0000	563730.6250
978.5000	565623.3125
978.0000	564589.5000
977.5000	570621.3750
977.0000	572522.0000
976.5000	576307.3750
976.0000	577762.6875
975.5000	580740.8750
975.0000	581866.1250
974.5000	581011.2500
974.0000	574621.4375
973.5000	575261.6250
973.0000	569345.0625
972.5000	571178.0625
972.0000	569217.8125
971.5000	564529.8750
971.0000	566156.1250
970.5000	565830.0625
970.0000	564609.3750
969.5000	566343.0000
969.0000	566844.0000
968.5000	564963.2500
968.0000	567416.5625
967.5000	566128.3125
967.0000	567802.2500
966.5000	570040.8750
966.0000	572136.3125
965.5000	570657.1875
965.0000	563977.1875
964.5000	559348.8750
964.0000	552895.5000
963.5000	546020.6250
963.0000	543706.4375
962.5000	540322.6875
962.0000	536263.0000
961.5000	536175.5000
961.0000	534970.7500
960.5000	536509.5000
960.0000	540259.0625
959.5000	540012.5625
959.0000	543237.2500
